        ks(1/s)        ksr(1/s)       ksnr(1/s)       kisc(1/s)         kt(1/s)        ktr(1/s)       ktnr(1/s)      krisc(1/s)       phi_sr(%)      phi_snr(%)      phi_isc(%)       phi_tr(%)      phi_tnr(%)     phi_risc(%)
    4.97279e+07     2.96632e+07     3.29591e+06     1.67688e+07     7.98439e+05     0.00000e+00     0.00000e+00     7.98439e+05        59.65096         6.62788        33.72115         0.00000         0.00000       100.00000
    4.97279e+07     2.96632e+07     3.27934e+06     1.67854e+07     7.98439e+05     0.00000e+00     7.87830e+02     7.97651e+05        59.65096         6.59458        33.75446         0.00000         0.09867        99.90133
    4.97279e+07     2.96632e+07     3.26278e+06     1.68019e+07     7.98439e+05     0.00000e+00     1.57411e+03     7.96865e+05        59.65096         6.56127        33.78776         0.00000         0.19715        99.80285
    4.97279e+07     2.96632e+07     3.24622e+06     1.68185e+07     7.98439e+05     0.00000e+00     2.35883e+03     7.96080e+05        59.65096         6.52797        33.82107         0.00000         0.29543        99.70457
    4.97279e+07     2.96632e+07     3.22966e+06     1.68351e+07     7.98439e+05     0.00000e+00     3.14202e+03     7.95297e+05        59.65096         6.49466        33.85438         0.00000         0.39352        99.60648
    4.97279e+07     2.96632e+07     3.21309e+06     1.68516e+07     7.98439e+05     0.00000e+00     3.92366e+03     7.94515e+05        59.65096         6.46136        33.88768         0.00000         0.49142        99.50858
    4.97279e+07     2.96632e+07     3.19653e+06     1.68682e+07     7.98439e+05     0.00000e+00     4.70377e+03     7.93735e+05        59.65096         6.42805        33.92099         0.00000         0.58912        99.41088
    4.97279e+07     2.96632e+07     3.17997e+06     1.68847e+07     7.98439e+05     0.00000e+00     5.48235e+03     7.92956e+05        59.65096         6.39474        33.95429         0.00000         0.68663        99.31337
    4.97279e+07     2.96632e+07     3.16341e+06     1.69013e+07     7.98439e+05     0.00000e+00     6.25940e+03     7.92179e+05        59.65096         6.36144        33.98760         0.00000         0.78396        99.21604
    4.97279e+07     2.96632e+07     3.14685e+06     1.69179e+07     7.98439e+05     0.00000e+00     7.03493e+03     7.91404e+05        59.65096         6.32813        34.02091         0.00000         0.88109        99.11891
    4.97279e+07     2.96632e+07     3.13028e+06     1.69344e+07     7.98439e+05     0.00000e+00     7.80895e+03     7.90630e+05        59.65096         6.29483        34.05421         0.00000         0.97803        99.02197
    4.97279e+07     2.96632e+07     3.11372e+06     1.69510e+07     7.98439e+05     0.00000e+00     8.58145e+03     7.89857e+05        59.65096         6.26152        34.08752         0.00000         1.07478        98.92522
    4.97279e+07     2.96632e+07     3.09716e+06     1.69676e+07     7.98439e+05     0.00000e+00     9.35244e+03     7.89086e+05        59.65096         6.22821        34.12082         0.00000         1.17134        98.82866
    4.97279e+07     2.96632e+07     3.08060e+06     1.69841e+07     7.98439e+05     0.00000e+00     1.01219e+04     7.88317e+05        59.65096         6.19491        34.15413         0.00000         1.26772        98.73228
    4.97279e+07     2.96632e+07     3.06403e+06     1.70007e+07     7.98439e+05     0.00000e+00     1.08899e+04     7.87549e+05        59.65096         6.16160        34.18743         0.00000         1.36390        98.63610
    4.97279e+07     2.96632e+07     3.04747e+06     1.70172e+07     7.98439e+05     0.00000e+00     1.16564e+04     7.86782e+05        59.65096         6.12830        34.22074         0.00000         1.45990        98.54010
    4.97279e+07     2.96632e+07     3.03091e+06     1.70338e+07     7.98439e+05     0.00000e+00     1.24214e+04     7.86017e+05        59.65096         6.09499        34.25405         0.00000         1.55571        98.44429
    4.97279e+07     2.96632e+07     3.01435e+06     1.70504e+07     7.98439e+05     0.00000e+00     1.31849e+04     7.85254e+05        59.65096         6.06168        34.28735         0.00000         1.65134        98.34866
    4.97279e+07     2.96632e+07     2.99778e+06     1.70669e+07     7.98439e+05     0.00000e+00     1.39470e+04     7.84492e+05        59.65096         6.02838        34.32066         0.00000         1.74678        98.25322
    4.97279e+07     2.96632e+07     2.98122e+06     1.70835e+07     7.98439e+05     0.00000e+00     1.47075e+04     7.83731e+05        59.65096         5.99507        34.35396         0.00000         1.84204        98.15796
    4.97279e+07     2.96632e+07     2.96466e+06     1.71001e+07     7.98439e+05     0.00000e+00     1.54666e+04     7.82972e+05        59.65096         5.96177        34.38727         0.00000         1.93711        98.06289
    4.97279e+07     2.96632e+07     2.94810e+06     1.71166e+07     7.98439e+05     0.00000e+00     1.62242e+04     7.82214e+05        59.65096         5.92846        34.42058         0.00000         2.03200        97.96800
    4.97279e+07     2.96632e+07     2.93153e+06     1.71332e+07     7.98439e+05     0.00000e+00     1.69804e+04     7.81458e+05        59.65096         5.89515        34.45388         0.00000         2.12670        97.87330
    4.97279e+07     2.96632e+07     2.91497e+06     1.71497e+07     7.98439e+05     0.00000e+00     1.77351e+04     7.80704e+05        59.65096         5.86185        34.48719         0.00000         2.22122        97.77878
    4.97279e+07     2.96632e+07     2.89841e+06     1.71663e+07     7.98439e+05     0.00000e+00     1.84883e+04     7.79950e+05        59.65096         5.82854        34.52049         0.00000         2.31556        97.68444
    4.97279e+07     2.96632e+07     2.88185e+06     1.71829e+07     7.98439e+05     0.00000e+00     1.92401e+04     7.79198e+05        59.65096         5.79524        34.55380         0.00000         2.40972        97.59028
    4.97279e+07     2.96632e+07     2.86529e+06     1.71994e+07     7.98439e+05     0.00000e+00     1.99904e+04     7.78448e+05        59.65096         5.76193        34.58711         0.00000         2.50369        97.49631
    4.97279e+07     2.96632e+07     2.84872e+06     1.72160e+07     7.98439e+05     0.00000e+00     2.07393e+04     7.77699e+05        59.65096         5.72862        34.62041         0.00000         2.59749        97.40251
    4.97279e+07     2.96632e+07     2.83216e+06     1.72326e+07     7.98439e+05     0.00000e+00     2.14868e+04     7.76952e+05        59.65096         5.69532        34.65372         0.00000         2.69110        97.30890
    4.97279e+07     2.96632e+07     2.81560e+06     1.72491e+07     7.98439e+05     0.00000e+00     2.22328e+04     7.76206e+05        59.65096         5.66201        34.68702         0.00000         2.78454        97.21546
    4.97279e+07     2.96632e+07     2.79904e+06     1.72657e+07     7.98439e+05     0.00000e+00     2.29774e+04     7.75461e+05        59.65096         5.62871        34.72033         0.00000         2.87779        97.12221
    4.97279e+07     2.96632e+07     2.78247e+06     1.72822e+07     7.98439e+05     0.00000e+00     2.37206e+04     7.74718e+05        59.65096         5.59540        34.75364         0.00000         2.97087        97.02913
    4.97279e+07     2.96632e+07     2.76591e+06     1.72988e+07     7.98439e+05     0.00000e+00     2.44623e+04     7.73976e+05        59.65096         5.56209        34.78694         0.00000         3.06377        96.93623
    4.97279e+07     2.96632e+07     2.74935e+06     1.73154e+07     7.98439e+05     0.00000e+00     2.52026e+04     7.73236e+05        59.65096         5.52879        34.82025         0.00000         3.15649        96.84351
    4.97279e+07     2.96632e+07     2.73279e+06     1.73319e+07     7.98439e+05     0.00000e+00     2.59415e+04     7.72497e+05        59.65096         5.49548        34.85355         0.00000         3.24903        96.75097
    4.97279e+07     2.96632e+07     2.71622e+06     1.73485e+07     7.98439e+05     0.00000e+00     2.66790e+04     7.71760e+05        59.65096         5.46218        34.88686         0.00000         3.34140        96.65860
    4.97279e+07     2.96632e+07     2.69966e+06     1.73651e+07     7.98439e+05     0.00000e+00     2.74151e+04     7.71024e+05        59.65096         5.42887        34.92017         0.00000         3.43359        96.56641
    4.97279e+07     2.96632e+07     2.68310e+06     1.73816e+07     7.98439e+05     0.00000e+00     2.81498e+04     7.70289e+05        59.65096         5.39556        34.95347         0.00000         3.52560        96.47440
    4.97279e+07     2.96632e+07     2.66654e+06     1.73982e+07     7.98439e+05     0.00000e+00     2.88831e+04     7.69556e+05        59.65096         5.36226        34.98678         0.00000         3.61744        96.38256
    4.97279e+07     2.96632e+07     2.64998e+06     1.74147e+07     7.98439e+05     0.00000e+00     2.96149e+04     7.68824e+05        59.65096         5.32895        35.02008         0.00000         3.70911        96.29089
    4.97279e+07     2.96632e+07     2.63341e+06     1.74313e+07     7.98439e+05     0.00000e+00     3.03454e+04     7.68093e+05        59.65096         5.29565        35.05339         0.00000         3.80060        96.19940
    4.97279e+07     2.96632e+07     2.61685e+06     1.74479e+07     7.98439e+05     0.00000e+00     3.10745e+04     7.67364e+05        59.65096         5.26234        35.08670         0.00000         3.89191        96.10809
    4.97279e+07     2.96632e+07     2.60029e+06     1.74644e+07     7.98439e+05     0.00000e+00     3.18023e+04     7.66636e+05        59.65096         5.22903        35.12000         0.00000         3.98306        96.01694
    4.97279e+07     2.96632e+07     2.58373e+06     1.74810e+07     7.98439e+05     0.00000e+00     3.25286e+04     7.65910e+05        59.65096         5.19573        35.15331         0.00000         4.07403        95.92597
    4.97279e+07     2.96632e+07     2.56716e+06     1.74976e+07     7.98439e+05     0.00000e+00     3.32536e+04     7.65185e+05        59.65096         5.16242        35.18661         0.00000         4.16483        95.83517
    4.97279e+07     2.96632e+07     2.55060e+06     1.75141e+07     7.98439e+05     0.00000e+00     3.39772e+04     7.64461e+05        59.65096         5.12912        35.21992         0.00000         4.25546        95.74454
    4.97279e+07     2.96632e+07     2.53404e+06     1.75307e+07     7.98439e+05     0.00000e+00     3.46994e+04     7.63739e+05        59.65096         5.09581        35.25323         0.00000         4.34591        95.65409
    4.97279e+07     2.96632e+07     2.51748e+06     1.75472e+07     7.98439e+05     0.00000e+00     3.54203e+04     7.63018e+05        59.65096         5.06251        35.28653         0.00000         4.43620        95.56380
    4.97279e+07     2.96632e+07     2.50091e+06     1.75638e+07     7.98439e+05     0.00000e+00     3.61398e+04     7.62299e+05        59.65096         5.02920        35.31984         0.00000         4.52631        95.47369
    4.97279e+07     2.96632e+07     2.48435e+06     1.75804e+07     7.98439e+05     0.00000e+00     3.68580e+04     7.61581e+05        59.65096         4.99589        35.35314         0.00000         4.61626        95.38374
    4.97279e+07     2.96632e+07     2.46779e+06     1.75969e+07     7.98439e+05     0.00000e+00     3.75748e+04     7.60864e+05        59.65096         4.96259        35.38645         0.00000         4.70603        95.29397
    4.97279e+07     2.96632e+07     2.45123e+06     1.76135e+07     7.98439e+05     0.00000e+00     3.82902e+04     7.60148e+05        59.65096         4.92928        35.41976         0.00000         4.79564        95.20436
    4.97279e+07     2.96632e+07     2.43466e+06     1.76301e+07     7.98439e+05     0.00000e+00     3.90043e+04     7.59434e+05        59.65096         4.89598        35.45306         0.00000         4.88508        95.11492
    4.97279e+07     2.96632e+07     2.41810e+06     1.76466e+07     7.98439e+05     0.00000e+00     3.97171e+04     7.58721e+05        59.65096         4.86267        35.48637         0.00000         4.97435        95.02565
    4.97279e+07     2.96632e+07     2.40154e+06     1.76632e+07     7.98439e+05     0.00000e+00     4.04286e+04     7.58010e+05        59.65096         4.82936        35.51967         0.00000         5.06345        94.93655
    4.97279e+07     2.96632e+07     2.38498e+06     1.76797e+07     7.98439e+05     0.00000e+00     4.11387e+04     7.57300e+05        59.65096         4.79606        35.55298         0.00000         5.15239        94.84761
    4.97279e+07     2.96632e+07     2.36842e+06     1.76963e+07     7.98439e+05     0.00000e+00     4.18474e+04     7.56591e+05        59.65096         4.76275        35.58629         0.00000         5.24116        94.75884
    4.97279e+07     2.96632e+07     2.35185e+06     1.77129e+07     7.98439e+05     0.00000e+00     4.25549e+04     7.55884e+05        59.65096         4.72945        35.61959         0.00000         5.32976        94.67024
    4.97279e+07     2.96632e+07     2.33529e+06     1.77294e+07     7.98439e+05     0.00000e+00     4.32610e+04     7.55178e+05        59.65096         4.69614        35.65290         0.00000         5.41820        94.58180
    4.97279e+07     2.96632e+07     2.31873e+06     1.77460e+07     7.98439e+05     0.00000e+00     4.39658e+04     7.54473e+05        59.65096         4.66283        35.68620         0.00000         5.50647        94.49353
    4.97279e+07     2.96632e+07     2.30217e+06     1.77626e+07     7.98439e+05     0.00000e+00     4.46693e+04     7.53769e+05        59.65096         4.62953        35.71951         0.00000         5.59458        94.40542
    4.97279e+07     2.96632e+07     2.28560e+06     1.77791e+07     7.98439e+05     0.00000e+00     4.53715e+04     7.53067e+05        59.65096         4.59622        35.75281         0.00000         5.68253        94.31747
    4.97279e+07     2.96632e+07     2.26904e+06     1.77957e+07     7.98439e+05     0.00000e+00     4.60724e+04     7.52366e+05        59.65096         4.56292        35.78612         0.00000         5.77031        94.22969
    4.97279e+07     2.96632e+07     2.25248e+06     1.78122e+07     7.98439e+05     0.00000e+00     4.67719e+04     7.51667e+05        59.65096         4.52961        35.81943         0.00000         5.85792        94.14208
    4.97279e+07     2.96632e+07     2.23592e+06     1.78288e+07     7.98439e+05     0.00000e+00     4.74702e+04     7.50968e+05        59.65096         4.49630        35.85273         0.00000         5.94538        94.05462
    4.97279e+07     2.96632e+07     2.21935e+06     1.78454e+07     7.98439e+05     0.00000e+00     4.81672e+04     7.50271e+05        59.65096         4.46300        35.88604         0.00000         6.03267        93.96733
    4.97279e+07     2.96632e+07     2.20279e+06     1.78619e+07     7.98439e+05     0.00000e+00     4.88629e+04     7.49576e+05        59.65096         4.42969        35.91934         0.00000         6.11980        93.88020
    4.97279e+07     2.96632e+07     2.18623e+06     1.78785e+07     7.98439e+05     0.00000e+00     4.95573e+04     7.48881e+05        59.65096         4.39639        35.95265         0.00000         6.20677        93.79323
    4.97279e+07     2.96632e+07     2.16967e+06     1.78951e+07     7.98439e+05     0.00000e+00     5.02504e+04     7.48188e+05        59.65096         4.36308        35.98596         0.00000         6.29358        93.70642
    4.97279e+07     2.96632e+07     2.15310e+06     1.79116e+07     7.98439e+05     0.00000e+00     5.09422e+04     7.47496e+05        59.65096         4.32977        36.01926         0.00000         6.38023        93.61977
    4.97279e+07     2.96632e+07     2.13654e+06     1.79282e+07     7.98439e+05     0.00000e+00     5.16327e+04     7.46806e+05        59.65096         4.29647        36.05257         0.00000         6.46671        93.53329
    4.97279e+07     2.96632e+07     2.11998e+06     1.79447e+07     7.98439e+05     0.00000e+00     5.23220e+04     7.46117e+05        59.65096         4.26316        36.08587         0.00000         6.55304        93.44696
    4.97279e+07     2.96632e+07     2.10342e+06     1.79613e+07     7.98439e+05     0.00000e+00     5.30100e+04     7.45429e+05        59.65096         4.22986        36.11918         0.00000         6.63921        93.36079
    4.97279e+07     2.96632e+07     2.08686e+06     1.79779e+07     7.98439e+05     0.00000e+00     5.36968e+04     7.44742e+05        59.65096         4.19655        36.15249         0.00000         6.72522        93.27478
    4.97279e+07     2.96632e+07     2.07029e+06     1.79944e+07     7.98439e+05     0.00000e+00     5.43822e+04     7.44056e+05        59.65096         4.16324        36.18579         0.00000         6.81107        93.18893
    4.97279e+07     2.96632e+07     2.05373e+06     1.80110e+07     7.98439e+05     0.00000e+00     5.50664e+04     7.43372e+05        59.65096         4.12994        36.21910         0.00000         6.89677        93.10323
    4.97279e+07     2.96632e+07     2.03717e+06     1.80276e+07     7.98439e+05     0.00000e+00     5.57494e+04     7.42689e+05        59.65096         4.09663        36.25240         0.00000         6.98230        93.01770
    4.97279e+07     2.96632e+07     2.02061e+06     1.80441e+07     7.98439e+05     0.00000e+00     5.64311e+04     7.42008e+05        59.65096         4.06333        36.28571         0.00000         7.06768        92.93232
    4.97279e+07     2.96632e+07     2.00404e+06     1.80607e+07     7.98439e+05     0.00000e+00     5.71115e+04     7.41327e+05        59.65096         4.03002        36.31902         0.00000         7.15290        92.84710
    4.97279e+07     2.96632e+07     1.98748e+06     1.80772e+07     7.98439e+05     0.00000e+00     5.77908e+04     7.40648e+05        59.65096         3.99671        36.35232         0.00000         7.23797        92.76203
    4.97279e+07     2.96632e+07     1.97092e+06     1.80938e+07     7.98439e+05     0.00000e+00     5.84687e+04     7.39970e+05        59.65096         3.96341        36.38563         0.00000         7.32288        92.67712
    4.97279e+07     2.96632e+07     1.95436e+06     1.81104e+07     7.98439e+05     0.00000e+00     5.91454e+04     7.39293e+05        59.65096         3.93010        36.41893         0.00000         7.40764        92.59236
    4.97279e+07     2.96632e+07     1.93779e+06     1.81269e+07     7.98439e+05     0.00000e+00     5.98209e+04     7.38618e+05        59.65096         3.89680        36.45224         0.00000         7.49224        92.50776
    4.97279e+07     2.96632e+07     1.92123e+06     1.81435e+07     7.98439e+05     0.00000e+00     6.04952e+04     7.37943e+05        59.65096         3.86349        36.48555         0.00000         7.57668        92.42332
    4.97279e+07     2.96632e+07     1.90467e+06     1.81600e+07     7.98439e+05     0.00000e+00     6.11682e+04     7.37270e+05        59.65096         3.83018        36.51885         0.00000         7.66098        92.33902
    4.97279e+07     2.96632e+07     1.88811e+06     1.81766e+07     7.98439e+05     0.00000e+00     6.18400e+04     7.36599e+05        59.65096         3.79688        36.55216         0.00000         7.74511        92.25489
    4.97279e+07     2.96632e+07     1.87154e+06     1.81932e+07     7.98439e+05     0.00000e+00     6.25105e+04     7.35928e+05        59.65096         3.76357        36.58546         0.00000         7.82910        92.17090
    4.97279e+07     2.96632e+07     1.85498e+06     1.82097e+07     7.98439e+05     0.00000e+00     6.31799e+04     7.35259e+05        59.65096         3.73027        36.61877         0.00000         7.91293        92.08707
    4.97279e+07     2.96632e+07     1.83842e+06     1.82263e+07     7.98439e+05     0.00000e+00     6.38480e+04     7.34591e+05        59.65096         3.69696        36.65208         0.00000         7.99661        92.00339
    4.97279e+07     2.96632e+07     1.82186e+06     1.82429e+07     7.98439e+05     0.00000e+00     6.45150e+04     7.33924e+05        59.65096         3.66365        36.68538         0.00000         8.08014        91.91986
    4.97279e+07     2.96632e+07     1.80530e+06     1.82594e+07     7.98439e+05     0.00000e+00     6.51807e+04     7.33258e+05        59.65096         3.63035        36.71869         0.00000         8.16352        91.83648
    4.97279e+07     2.96632e+07     1.78873e+06     1.82760e+07     7.98439e+05     0.00000e+00     6.58452e+04     7.32593e+05        59.65096         3.59704        36.75199         0.00000         8.24674        91.75326
    4.97279e+07     2.96632e+07     1.77217e+06     1.82925e+07     7.98439e+05     0.00000e+00     6.65085e+04     7.31930e+05        59.65096         3.56374        36.78530         0.00000         8.32982        91.67018
    4.97279e+07     2.96632e+07     1.75561e+06     1.83091e+07     7.98439e+05     0.00000e+00     6.71706e+04     7.31268e+05        59.65096         3.53043        36.81861         0.00000         8.41274        91.58726
    4.97279e+07     2.96632e+07     1.73905e+06     1.83257e+07     7.98439e+05     0.00000e+00     6.78315e+04     7.30607e+05        59.65096         3.49713        36.85191         0.00000         8.49552        91.50448
    4.97279e+07     2.96632e+07     1.72248e+06     1.83422e+07     7.98439e+05     0.00000e+00     6.84912e+04     7.29947e+05        59.65096         3.46382        36.88522         0.00000         8.57814        91.42186
    4.97279e+07     2.96632e+07     1.70592e+06     1.83588e+07     7.98439e+05     0.00000e+00     6.91497e+04     7.29289e+05        59.65096         3.43051        36.91852         0.00000         8.66062        91.33938
    4.97279e+07     2.96632e+07     1.68936e+06     1.83754e+07     7.98439e+05     0.00000e+00     6.98070e+04     7.28632e+05        59.65096         3.39721        36.95183         0.00000         8.74294        91.25706
    4.97279e+07     2.96632e+07     1.67280e+06     1.83919e+07     7.98439e+05     0.00000e+00     7.04632e+04     7.27975e+05        59.65096         3.36390        36.98514         0.00000         8.82512        91.17488
    4.97279e+07     2.96632e+07     1.65623e+06     1.84085e+07     7.98439e+05     0.00000e+00     7.11182e+04     7.27320e+05        59.65096         3.33060        37.01844         0.00000         8.90715        91.09285
    4.97279e+07     2.96632e+07     1.63967e+06     1.84250e+07     7.98439e+05     0.00000e+00     7.17719e+04     7.26667e+05        59.65096         3.29729        37.05175         0.00000         8.98904        91.01096
    4.97279e+07     2.96632e+07     1.62311e+06     1.84416e+07     7.98439e+05     0.00000e+00     7.24246e+04     7.26014e+05        59.65096         3.26398        37.08505         0.00000         9.07077        90.92923
    4.97279e+07     2.96632e+07     1.60655e+06     1.84582e+07     7.98439e+05     0.00000e+00     7.30760e+04     7.25363e+05        59.65096         3.23068        37.11836         0.00000         9.15236        90.84764
    4.97279e+07     2.96632e+07     1.58999e+06     1.84747e+07     7.98439e+05     0.00000e+00     7.37263e+04     7.24712e+05        59.65096         3.19737        37.15166         0.00000         9.23381        90.76619
    4.97279e+07     2.96632e+07     1.57342e+06     1.84913e+07     7.98439e+05     0.00000e+00     7.43754e+04     7.24063e+05        59.65096         3.16407        37.18497         0.00000         9.31511        90.68489
    4.97279e+07     2.96632e+07     1.55686e+06     1.85079e+07     7.98439e+05     0.00000e+00     7.50233e+04     7.23415e+05        59.65096         3.13076        37.21828         0.00000         9.39626        90.60374
    4.97279e+07     2.96632e+07     1.54030e+06     1.85244e+07     7.98439e+05     0.00000e+00     7.56701e+04     7.22768e+05        59.65096         3.09745        37.25158         0.00000         9.47726        90.52274
    4.97279e+07     2.96632e+07     1.52374e+06     1.85410e+07     7.98439e+05     0.00000e+00     7.63158e+04     7.22123e+05        59.65096         3.06415        37.28489         0.00000         9.55813        90.44187
    4.97279e+07     2.96632e+07     1.50717e+06     1.85575e+07     7.98439e+05     0.00000e+00     7.69603e+04     7.21478e+05        59.65096         3.03084        37.31819         0.00000         9.63885        90.36115
    4.97279e+07     2.96632e+07     1.49061e+06     1.85741e+07     7.98439e+05     0.00000e+00     7.76036e+04     7.20835e+05        59.65096         2.99754        37.35150         0.00000         9.71942        90.28058
    4.97279e+07     2.96632e+07     1.47405e+06     1.85907e+07     7.98439e+05     0.00000e+00     7.82458e+04     7.20193e+05        59.65096         2.96423        37.38481         0.00000         9.79985        90.20015
    4.97279e+07     2.96632e+07     1.45749e+06     1.86072e+07     7.98439e+05     0.00000e+00     7.88868e+04     7.19552e+05        59.65096         2.93092        37.41811         0.00000         9.88014        90.11986
    4.97279e+07     2.96632e+07     1.44092e+06     1.86238e+07     7.98439e+05     0.00000e+00     7.95267e+04     7.18912e+05        59.65096         2.89762        37.45142         0.00000         9.96028        90.03972
    4.97279e+07     2.96632e+07     1.42436e+06     1.86404e+07     7.98439e+05     0.00000e+00     8.01655e+04     7.18273e+05        59.65096         2.86431        37.48472         0.00000        10.04028        89.95972
    4.97279e+07     2.96632e+07     1.40780e+06     1.86569e+07     7.98439e+05     0.00000e+00     8.08031e+04     7.17635e+05        59.65096         2.83101        37.51803         0.00000        10.12014        89.87986
    4.97279e+07     2.96632e+07     1.39124e+06     1.86735e+07     7.98439e+05     0.00000e+00     8.14396e+04     7.16999e+05        59.65096         2.79770        37.55134         0.00000        10.19986        89.80014
    4.97279e+07     2.96632e+07     1.37467e+06     1.86900e+07     7.98439e+05     0.00000e+00     8.20750e+04     7.16364e+05        59.65096         2.76439        37.58464         0.00000        10.27944        89.72056
    4.97279e+07     2.96632e+07     1.35811e+06     1.87066e+07     7.98439e+05     0.00000e+00     8.27093e+04     7.15729e+05        59.65096         2.73109        37.61795         0.00000        10.35888        89.64112
    4.97279e+07     2.96632e+07     1.34155e+06     1.87232e+07     7.98439e+05     0.00000e+00     8.33424e+04     7.15096e+05        59.65096         2.69778        37.65125         0.00000        10.43817        89.56183
    4.97279e+07     2.96632e+07     1.32499e+06     1.87397e+07     7.98439e+05     0.00000e+00     8.39744e+04     7.14464e+05        59.65096         2.66448        37.68456         0.00000        10.51733        89.48267
    4.97279e+07     2.96632e+07     1.30843e+06     1.87563e+07     7.98439e+05     0.00000e+00     8.46053e+04     7.13833e+05        59.65096         2.63117        37.71787         0.00000        10.59634        89.40366
    4.97279e+07     2.96632e+07     1.29186e+06     1.87729e+07     7.98439e+05     0.00000e+00     8.52351e+04     7.13204e+05        59.65096         2.59786        37.75117         0.00000        10.67522        89.32478
    4.97279e+07     2.96632e+07     1.27530e+06     1.87894e+07     7.98439e+05     0.00000e+00     8.58637e+04     7.12575e+05        59.65096         2.56456        37.78448         0.00000        10.75396        89.24604
    4.97279e+07     2.96632e+07     1.25874e+06     1.88060e+07     7.98439e+05     0.00000e+00     8.64913e+04     7.11947e+05        59.65096         2.53125        37.81778         0.00000        10.83256        89.16744
    4.97279e+07     2.96632e+07     1.24218e+06     1.88225e+07     7.98439e+05     0.00000e+00     8.71178e+04     7.11321e+05        59.65096         2.49795        37.85109         0.00000        10.91102        89.08898
    4.97279e+07     2.96632e+07     1.22561e+06     1.88391e+07     7.98439e+05     0.00000e+00     8.77431e+04     7.10695e+05        59.65096         2.46464        37.88440         0.00000        10.98934        89.01066
    4.97279e+07     2.96632e+07     1.20905e+06     1.88557e+07     7.98439e+05     0.00000e+00     8.83674e+04     7.10071e+05        59.65096         2.43133        37.91770         0.00000        11.06752        88.93248
    4.97279e+07     2.96632e+07     1.19249e+06     1.88722e+07     7.98439e+05     0.00000e+00     8.89905e+04     7.09448e+05        59.65096         2.39803        37.95101         0.00000        11.14557        88.85443
    4.97279e+07     2.96632e+07     1.17593e+06     1.88888e+07     7.98439e+05     0.00000e+00     8.96126e+04     7.08826e+05        59.65096         2.36472        37.98431         0.00000        11.22348        88.77652
    4.97279e+07     2.96632e+07     1.15936e+06     1.89054e+07     7.98439e+05     0.00000e+00     9.02336e+04     7.08205e+05        59.65096         2.33142        38.01762         0.00000        11.30125        88.69875
    4.97279e+07     2.96632e+07     1.14280e+06     1.89219e+07     7.98439e+05     0.00000e+00     9.08535e+04     7.07585e+05        59.65096         2.29811        38.05093         0.00000        11.37889        88.62111
    4.97279e+07     2.96632e+07     1.12624e+06     1.89385e+07     7.98439e+05     0.00000e+00     9.14723e+04     7.06966e+05        59.65096         2.26480        38.08423         0.00000        11.45639        88.54361
    4.97279e+07     2.96632e+07     1.10968e+06     1.89550e+07     7.98439e+05     0.00000e+00     9.20900e+04     7.06349e+05        59.65096         2.23150        38.11754         0.00000        11.53376        88.46624
    4.97279e+07     2.96632e+07     1.09311e+06     1.89716e+07     7.98439e+05     0.00000e+00     9.27067e+04     7.05732e+05        59.65096         2.19819        38.15084         0.00000        11.61099        88.38901
    4.97279e+07     2.96632e+07     1.07655e+06     1.89882e+07     7.98439e+05     0.00000e+00     9.33222e+04     7.05116e+05        59.65096         2.16489        38.18415         0.00000        11.68809        88.31191
    4.97279e+07     2.96632e+07     1.05999e+06     1.90047e+07     7.98439e+05     0.00000e+00     9.39367e+04     7.04502e+05        59.65096         2.13158        38.21746         0.00000        11.76505        88.23495
    4.97279e+07     2.96632e+07     1.04343e+06     1.90213e+07     7.98439e+05     0.00000e+00     9.45502e+04     7.03888e+05        59.65096         2.09828        38.25076         0.00000        11.84188        88.15812
    4.97279e+07     2.96632e+07     1.02687e+06     1.90379e+07     7.98439e+05     0.00000e+00     9.51625e+04     7.03276e+05        59.65096         2.06497        38.28407         0.00000        11.91858        88.08142
    4.97279e+07     2.96632e+07     1.01030e+06     1.90544e+07     7.98439e+05     0.00000e+00     9.57738e+04     7.02665e+05        59.65096         2.03166        38.31737         0.00000        11.99514        88.00486
    4.97279e+07     2.96632e+07     9.93741e+05     1.90710e+07     7.98439e+05     0.00000e+00     9.63840e+04     7.02055e+05        59.65096         1.99836        38.35068         0.00000        12.07157        87.92843
    4.97279e+07     2.96632e+07     9.77178e+05     1.90875e+07     7.98439e+05     0.00000e+00     9.69932e+04     7.01445e+05        59.65096         1.96505        38.38399         0.00000        12.14786        87.85214
    4.97279e+07     2.96632e+07     9.60616e+05     1.91041e+07     7.98439e+05     0.00000e+00     9.76013e+04     7.00837e+05        59.65096         1.93175        38.41729         0.00000        12.22403        87.77597
    4.97279e+07     2.96632e+07     9.44054e+05     1.91207e+07     7.98439e+05     0.00000e+00     9.82084e+04     7.00230e+05        59.65096         1.89844        38.45060         0.00000        12.30006        87.69994
    4.97279e+07     2.96632e+07     9.27491e+05     1.91372e+07     7.98439e+05     0.00000e+00     9.88144e+04     6.99624e+05        59.65096         1.86513        38.48390         0.00000        12.37596        87.62404
    4.97279e+07     2.96632e+07     9.10929e+05     1.91538e+07     7.98439e+05     0.00000e+00     9.94194e+04     6.99019e+05        59.65096         1.83183        38.51721         0.00000        12.45173        87.54827
    4.97279e+07     2.96632e+07     8.94367e+05     1.91704e+07     7.98439e+05     0.00000e+00     1.00023e+05     6.98415e+05        59.65096         1.79852        38.55051         0.00000        12.52736        87.47264
    4.97279e+07     2.96632e+07     8.77804e+05     1.91869e+07     7.98439e+05     0.00000e+00     1.00626e+05     6.97812e+05        59.65096         1.76522        38.58382         0.00000        12.60287        87.39713
    4.97279e+07     2.96632e+07     8.61242e+05     1.92035e+07     7.98439e+05     0.00000e+00     1.01228e+05     6.97211e+05        59.65096         1.73191        38.61713         0.00000        12.67825        87.32175
    4.97279e+07     2.96632e+07     8.44680e+05     1.92200e+07     7.98439e+05     0.00000e+00     1.01829e+05     6.96610e+05        59.65096         1.69860        38.65043         0.00000        12.75350        87.24650
    4.97279e+07     2.96632e+07     8.28117e+05     1.92366e+07     7.98439e+05     0.00000e+00     1.02429e+05     6.96010e+05        59.65096         1.66530        38.68374         0.00000        12.82861        87.17139
    4.97279e+07     2.96632e+07     8.11555e+05     1.92532e+07     7.98439e+05     0.00000e+00     1.03027e+05     6.95411e+05        59.65096         1.63199        38.71704         0.00000        12.90360        87.09640
    4.97279e+07     2.96632e+07     7.94993e+05     1.92697e+07     7.98439e+05     0.00000e+00     1.03625e+05     6.94814e+05        59.65096         1.59869        38.75035         0.00000        12.97846        87.02154
    4.97279e+07     2.96632e+07     7.78430e+05     1.92863e+07     7.98439e+05     0.00000e+00     1.04222e+05     6.94217e+05        59.65096         1.56538        38.78366         0.00000        13.05319        86.94681
    4.97279e+07     2.96632e+07     7.61868e+05     1.93029e+07     7.98439e+05     0.00000e+00     1.04817e+05     6.93621e+05        59.65096         1.53207        38.81696         0.00000        13.12779        86.87221
    4.97279e+07     2.96632e+07     7.45305e+05     1.93194e+07     7.98439e+05     0.00000e+00     1.05412e+05     6.93027e+05        59.65096         1.49877        38.85027         0.00000        13.20227        86.79773
    4.97279e+07     2.96632e+07     7.28743e+05     1.93360e+07     7.98439e+05     0.00000e+00     1.06006e+05     6.92433e+05        59.65096         1.46546        38.88357         0.00000        13.27662        86.72338
    4.97279e+07     2.96632e+07     7.12181e+05     1.93525e+07     7.98439e+05     0.00000e+00     1.06598e+05     6.91840e+05        59.65096         1.43216        38.91688         0.00000        13.35084        86.64916
    4.97279e+07     2.96632e+07     6.95618e+05     1.93691e+07     7.98439e+05     0.00000e+00     1.07190e+05     6.91249e+05        59.65096         1.39885        38.95019         0.00000        13.42493        86.57507
    4.97279e+07     2.96632e+07     6.79056e+05     1.93857e+07     7.98439e+05     0.00000e+00     1.07780e+05     6.90658e+05        59.65096         1.36554        38.98349         0.00000        13.49890        86.50110
    4.97279e+07     2.96632e+07     6.62494e+05     1.94022e+07     7.98439e+05     0.00000e+00     1.08370e+05     6.90069e+05        59.65096         1.33224        39.01680         0.00000        13.57274        86.42726
    4.97279e+07     2.96632e+07     6.45931e+05     1.94188e+07     7.98439e+05     0.00000e+00     1.08959e+05     6.89480e+05        59.65096         1.29893        39.05010         0.00000        13.64645        86.35355
    4.97279e+07     2.96632e+07     6.29369e+05     1.94354e+07     7.98439e+05     0.00000e+00     1.09546e+05     6.88893e+05        59.65096         1.26563        39.08341         0.00000        13.72004        86.27996
    4.97279e+07     2.96632e+07     6.12807e+05     1.94519e+07     7.98439e+05     0.00000e+00     1.10133e+05     6.88306e+05        59.65096         1.23232        39.11672         0.00000        13.79350        86.20650
    4.97279e+07     2.96632e+07     5.96244e+05     1.94685e+07     7.98439e+05     0.00000e+00     1.10718e+05     6.87720e+05        59.65096         1.19901        39.15002         0.00000        13.86684        86.13316
    4.97279e+07     2.96632e+07     5.79682e+05     1.94850e+07     7.98439e+05     0.00000e+00     1.11303e+05     6.87136e+05        59.65096         1.16571        39.18333         0.00000        13.94005        86.05995
    4.97279e+07     2.96632e+07     5.63120e+05     1.95016e+07     7.98439e+05     0.00000e+00     1.11886e+05     6.86552e+05        59.65096         1.13240        39.21663         0.00000        14.01314        85.98686
    4.97279e+07     2.96632e+07     5.46557e+05     1.95182e+07     7.98439e+05     0.00000e+00     1.12469e+05     6.85970e+05        59.65096         1.09910        39.24994         0.00000        14.08611        85.91389
    4.97279e+07     2.96632e+07     5.29995e+05     1.95347e+07     7.98439e+05     0.00000e+00     1.13051e+05     6.85388e+05        59.65096         1.06579        39.28325         0.00000        14.15895        85.84105
    4.97279e+07     2.96632e+07     5.13433e+05     1.95513e+07     7.98439e+05     0.00000e+00     1.13631e+05     6.84807e+05        59.65096         1.03248        39.31655         0.00000        14.23167        85.76833
    4.97279e+07     2.96632e+07     4.96870e+05     1.95678e+07     7.98439e+05     0.00000e+00     1.14211e+05     6.84228e+05        59.65096         0.99918        39.34986         0.00000        14.30426        85.69574
    4.97279e+07     2.96632e+07     4.80308e+05     1.95844e+07     7.98439e+05     0.00000e+00     1.14789e+05     6.83649e+05        59.65096         0.96587        39.38316         0.00000        14.37673        85.62327
    4.97279e+07     2.96632e+07     4.63746e+05     1.96010e+07     7.98439e+05     0.00000e+00     1.15367e+05     6.83072e+05        59.65096         0.93257        39.41647         0.00000        14.44908        85.55092
    4.97279e+07     2.96632e+07     4.47183e+05     1.96175e+07     7.98439e+05     0.00000e+00     1.15944e+05     6.82495e+05        59.65096         0.89926        39.44978         0.00000        14.52131        85.47869
    4.97279e+07     2.96632e+07     4.30621e+05     1.96341e+07     7.98439e+05     0.00000e+00     1.16519e+05     6.81919e+05        59.65096         0.86595        39.48308         0.00000        14.59342        85.40658
    4.97279e+07     2.96632e+07     4.14059e+05     1.96507e+07     7.98439e+05     0.00000e+00     1.17094e+05     6.81344e+05        59.65096         0.83265        39.51639         0.00000        14.66540        85.33460
    4.97279e+07     2.96632e+07     3.97496e+05     1.96672e+07     7.98439e+05     0.00000e+00     1.17668e+05     6.80771e+05        59.65096         0.79934        39.54969         0.00000        14.73726        85.26274
    4.97279e+07     2.96632e+07     3.80934e+05     1.96838e+07     7.98439e+05     0.00000e+00     1.18241e+05     6.80198e+05        59.65096         0.76604        39.58300         0.00000        14.80900        85.19100
    4.97279e+07     2.96632e+07     3.64372e+05     1.97003e+07     7.98439e+05     0.00000e+00     1.18813e+05     6.79626e+05        59.65096         0.73273        39.61631         0.00000        14.88062        85.11938
    4.97279e+07     2.96632e+07     3.47809e+05     1.97169e+07     7.98439e+05     0.00000e+00     1.19384e+05     6.79055e+05        59.65096         0.69943        39.64961         0.00000        14.95213        85.04787
    4.97279e+07     2.96632e+07     3.31247e+05     1.97335e+07     7.98439e+05     0.00000e+00     1.19953e+05     6.78485e+05        59.65096         0.66612        39.68292         0.00000        15.02351        84.97649
    4.97279e+07     2.96632e+07     3.14685e+05     1.97500e+07     7.98439e+05     0.00000e+00     1.20522e+05     6.77916e+05        59.65096         0.63281        39.71622         0.00000        15.09477        84.90523
    4.97279e+07     2.96632e+07     2.98122e+05     1.97666e+07     7.98439e+05     0.00000e+00     1.21090e+05     6.77348e+05        59.65096         0.59951        39.74953         0.00000        15.16591        84.83409
    4.97279e+07     2.96632e+07     2.81560e+05     1.97832e+07     7.98439e+05     0.00000e+00     1.21658e+05     6.76781e+05        59.65096         0.56620        39.78284         0.00000        15.23693        84.76307
    4.97279e+07     2.96632e+07     2.64998e+05     1.97997e+07     7.98439e+05     0.00000e+00     1.22224e+05     6.76215e+05        59.65096         0.53290        39.81614         0.00000        15.30784        84.69216
    4.97279e+07     2.96632e+07     2.48435e+05     1.98163e+07     7.98439e+05     0.00000e+00     1.22789e+05     6.75650e+05        59.65096         0.49959        39.84945         0.00000        15.37862        84.62138
    4.97279e+07     2.96632e+07     2.31873e+05     1.98328e+07     7.98439e+05     0.00000e+00     1.23353e+05     6.75086e+05        59.65096         0.46628        39.88275         0.00000        15.44929        84.55071
    4.97279e+07     2.96632e+07     2.15310e+05     1.98494e+07     7.98439e+05     0.00000e+00     1.23916e+05     6.74522e+05        59.65096         0.43298        39.91606         0.00000        15.51984        84.48016
    4.97279e+07     2.96632e+07     1.98748e+05     1.98660e+07     7.98439e+05     0.00000e+00     1.24479e+05     6.73960e+05        59.65096         0.39967        39.94936         0.00000        15.59027        84.40973
    4.97279e+07     2.96632e+07     1.82186e+05     1.98825e+07     7.98439e+05     0.00000e+00     1.25040e+05     6.73398e+05        59.65096         0.36637        39.98267         0.00000        15.66058        84.33942
    4.97279e+07     2.96632e+07     1.65623e+05     1.98991e+07     7.98439e+05     0.00000e+00     1.25601e+05     6.72838e+05        59.65096         0.33306        40.01598         0.00000        15.73078        84.26922
    4.97279e+07     2.96632e+07     1.49061e+05     1.99157e+07     7.98439e+05     0.00000e+00     1.26160e+05     6.72278e+05        59.65096         0.29975        40.04928         0.00000        15.80086        84.19914
    4.97279e+07     2.96632e+07     1.32499e+05     1.99322e+07     7.98439e+05     0.00000e+00     1.26719e+05     6.71720e+05        59.65096         0.26645        40.08259         0.00000        15.87082        84.12918
    4.97279e+07     2.96632e+07     1.15936e+05     1.99488e+07     7.98439e+05     0.00000e+00     1.27276e+05     6.71162e+05        59.65096         0.23314        40.11589         0.00000        15.94067        84.05933
    4.97279e+07     2.96632e+07     9.93741e+04     1.99653e+07     7.98439e+05     0.00000e+00     1.27833e+05     6.70605e+05        59.65096         0.19984        40.14920         0.00000        16.01040        83.98960
    4.97279e+07     2.96632e+07     8.28117e+04     1.99819e+07     7.98439e+05     0.00000e+00     1.28389e+05     6.70050e+05        59.65096         0.16653        40.18251         0.00000        16.08002        83.91998
    4.97279e+07     2.96632e+07     6.62494e+04     1.99985e+07     7.98439e+05     0.00000e+00     1.28944e+05     6.69495e+05        59.65096         0.13322        40.21581         0.00000        16.14952        83.85048
    4.97279e+07     2.96632e+07     4.96870e+04     2.00150e+07     7.98439e+05     0.00000e+00     1.29498e+05     6.68941e+05        59.65096         0.09992        40.24912         0.00000        16.21891        83.78109
    4.97279e+07     2.96632e+07     3.31247e+04     2.00316e+07     7.98439e+05     0.00000e+00     1.30051e+05     6.68388e+05        59.65096         0.06661        40.28242         0.00000        16.28818        83.71182
    4.97279e+07     2.96632e+07     1.65623e+04     2.00482e+07     7.98439e+05     0.00000e+00     1.30603e+05     6.67835e+05        59.65096         0.03331        40.31573         0.00000        16.35733        83.64267
    4.97279e+07     2.96632e+07     0.00000e+00     2.00647e+07     7.98439e+05     0.00000e+00     1.31155e+05     6.67284e+05        59.65096         0.00000        40.34904         0.00000        16.42638        83.57362
