        ks(1/s)        ksr(1/s)       ksnr(1/s)       kisc(1/s)         kt(1/s)        ktr(1/s)       ktnr(1/s)      krisc(1/s)       phi_sr(%)      phi_snr(%)      phi_isc(%)       phi_tr(%)      phi_tnr(%)     phi_risc(%)
    6.66079e+07     4.67080e+07     1.02530e+07     9.64688e+06     4.03583e+05     0.00000e+00    -5.82077e-11     4.03583e+05        70.12387        15.39304        14.48308         0.00000        -0.00000       100.00000
    6.66079e+07     4.67080e+07     1.02015e+07     9.69840e+06     4.03583e+05     0.00000e+00     2.14403e+03     4.01439e+05        70.12387        15.31569        14.56044         0.00000         0.53125        99.46875
    6.66079e+07     4.67080e+07     1.01499e+07     9.74992e+06     4.03583e+05     0.00000e+00     4.26539e+03     3.99318e+05        70.12387        15.23834        14.63779         0.00000         1.05688        98.94312
    6.66079e+07     4.67080e+07     1.00984e+07     9.80145e+06     4.03583e+05     0.00000e+00     6.36446e+03     3.97219e+05        70.12387        15.16099        14.71514         0.00000         1.57699        98.42301
    6.66079e+07     4.67080e+07     1.00469e+07     9.85297e+06     4.03583e+05     0.00000e+00     8.44157e+03     3.95141e+05        70.12387        15.08364        14.79249         0.00000         2.09166        97.90834
    6.66079e+07     4.67080e+07     9.99537e+06     9.90449e+06     4.03583e+05     0.00000e+00     1.04971e+04     3.93086e+05        70.12387        15.00629        14.86984         0.00000         2.60097        97.39903
    6.66079e+07     4.67080e+07     9.94385e+06     9.95601e+06     4.03583e+05     0.00000e+00     1.25313e+04     3.91052e+05        70.12387        14.92893        14.94720         0.00000         3.10501        96.89499
    6.66079e+07     4.67080e+07     9.89233e+06     1.00075e+07     4.03583e+05     0.00000e+00     1.45446e+04     3.89038e+05        70.12387        14.85158        15.02455         0.00000         3.60386        96.39614
    6.66079e+07     4.67080e+07     9.84081e+06     1.00591e+07     4.03583e+05     0.00000e+00     1.65372e+04     3.87046e+05        70.12387        14.77423        15.10190         0.00000         4.09760        95.90240
    6.66079e+07     4.67080e+07     9.78928e+06     1.01106e+07     4.03583e+05     0.00000e+00     1.85096e+04     3.85073e+05        70.12387        14.69688        15.17925         0.00000         4.58631        95.41369
    6.66079e+07     4.67080e+07     9.73776e+06     1.01621e+07     4.03583e+05     0.00000e+00     2.04619e+04     3.83121e+05        70.12387        14.61953        15.25660         0.00000         5.07007        94.92993
    6.66079e+07     4.67080e+07     9.68624e+06     1.02136e+07     4.03583e+05     0.00000e+00     2.23946e+04     3.81188e+05        70.12387        14.54217        15.33396         0.00000         5.54894        94.45106
    6.66079e+07     4.67080e+07     9.63472e+06     1.02652e+07     4.03583e+05     0.00000e+00     2.43078e+04     3.79275e+05        70.12387        14.46482        15.41131         0.00000         6.02300        93.97700
    6.66079e+07     4.67080e+07     9.58319e+06     1.03167e+07     4.03583e+05     0.00000e+00     2.62020e+04     3.77381e+05        70.12387        14.38747        15.48866         0.00000         6.49234        93.50766
    6.66079e+07     4.67080e+07     9.53167e+06     1.03682e+07     4.03583e+05     0.00000e+00     2.80773e+04     3.75506e+05        70.12387        14.31012        15.56601         0.00000         6.95700        93.04300
    6.66079e+07     4.67080e+07     9.48015e+06     1.04197e+07     4.03583e+05     0.00000e+00     2.99340e+04     3.73649e+05        70.12387        14.23277        15.64336         0.00000         7.41707        92.58293
    6.66079e+07     4.67080e+07     9.42863e+06     1.04712e+07     4.03583e+05     0.00000e+00     3.17725e+04     3.71810e+05        70.12387        14.15541        15.72072         0.00000         7.87262        92.12738
    6.66079e+07     4.67080e+07     9.37710e+06     1.05228e+07     4.03583e+05     0.00000e+00     3.35930e+04     3.69990e+05        70.12387        14.07806        15.79807         0.00000         8.32370        91.67630
    6.66079e+07     4.67080e+07     9.32558e+06     1.05743e+07     4.03583e+05     0.00000e+00     3.53958e+04     3.68187e+05        70.12387        14.00071        15.87542         0.00000         8.77039        91.22961
    6.66079e+07     4.67080e+07     9.27406e+06     1.06258e+07     4.03583e+05     0.00000e+00     3.71811e+04     3.66402e+05        70.12387        13.92336        15.95277         0.00000         9.21274        90.78726
    6.66079e+07     4.67080e+07     9.22253e+06     1.06773e+07     4.03583e+05     0.00000e+00     3.89491e+04     3.64634e+05        70.12387        13.84601        16.03012         0.00000         9.65083        90.34917
    6.66079e+07     4.67080e+07     9.17101e+06     1.07289e+07     4.03583e+05     0.00000e+00     4.07002e+04     3.62883e+05        70.12387        13.76865        16.10748         0.00000        10.08471        89.91529
    6.66079e+07     4.67080e+07     9.11949e+06     1.07804e+07     4.03583e+05     0.00000e+00     4.24345e+04     3.61149e+05        70.12387        13.69130        16.18483         0.00000        10.51444        89.48556
    6.66079e+07     4.67080e+07     9.06797e+06     1.08319e+07     4.03583e+05     0.00000e+00     4.41523e+04     3.59431e+05        70.12387        13.61395        16.26218         0.00000        10.94008        89.05992
    6.66079e+07     4.67080e+07     9.01644e+06     1.08834e+07     4.03583e+05     0.00000e+00     4.58539e+04     3.57729e+05        70.12387        13.53660        16.33953         0.00000        11.36169        88.63831
    6.66079e+07     4.67080e+07     8.96492e+06     1.09349e+07     4.03583e+05     0.00000e+00     4.75394e+04     3.56044e+05        70.12387        13.45925        16.41688         0.00000        11.77933        88.22067
    6.66079e+07     4.67080e+07     8.91340e+06     1.09865e+07     4.03583e+05     0.00000e+00     4.92091e+04     3.54374e+05        70.12387        13.38189        16.49424         0.00000        12.19306        87.80694
    6.66079e+07     4.67080e+07     8.86188e+06     1.10380e+07     4.03583e+05     0.00000e+00     5.08632e+04     3.52720e+05        70.12387        13.30454        16.57159         0.00000        12.60292        87.39708
    6.66079e+07     4.67080e+07     8.81035e+06     1.10895e+07     4.03583e+05     0.00000e+00     5.25020e+04     3.51081e+05        70.12387        13.22719        16.64894         0.00000        13.00897        86.99103
    6.66079e+07     4.67080e+07     8.75883e+06     1.11410e+07     4.03583e+05     0.00000e+00     5.41256e+04     3.49457e+05        70.12387        13.14984        16.72629         0.00000        13.41127        86.58873
    6.66079e+07     4.67080e+07     8.70731e+06     1.11926e+07     4.03583e+05     0.00000e+00     5.57342e+04     3.47849e+05        70.12387        13.07249        16.80364         0.00000        13.80986        86.19014
    6.66079e+07     4.67080e+07     8.65579e+06     1.12441e+07     4.03583e+05     0.00000e+00     5.73282e+04     3.46255e+05        70.12387        12.99513        16.88100         0.00000        14.20480        85.79520
    6.66079e+07     4.67080e+07     8.60426e+06     1.12956e+07     4.03583e+05     0.00000e+00     5.89075e+04     3.44675e+05        70.12387        12.91778        16.95835         0.00000        14.59614        85.40386
    6.66079e+07     4.67080e+07     8.55274e+06     1.13471e+07     4.03583e+05     0.00000e+00     6.04726e+04     3.43110e+05        70.12387        12.84043        17.03570         0.00000        14.98392        85.01608
    6.66079e+07     4.67080e+07     8.50122e+06     1.13986e+07     4.03583e+05     0.00000e+00     6.20234e+04     3.41560e+05        70.12387        12.76308        17.11305         0.00000        15.36820        84.63180
    6.66079e+07     4.67080e+07     8.44970e+06     1.14502e+07     4.03583e+05     0.00000e+00     6.35604e+04     3.40023e+05        70.12387        12.68573        17.19040         0.00000        15.74902        84.25098
    6.66079e+07     4.67080e+07     8.39817e+06     1.15017e+07     4.03583e+05     0.00000e+00     6.50835e+04     3.38500e+05        70.12387        12.60837        17.26776         0.00000        16.12642        83.87358
    6.66079e+07     4.67080e+07     8.34665e+06     1.15532e+07     4.03583e+05     0.00000e+00     6.65931e+04     3.36990e+05        70.12387        12.53102        17.34511         0.00000        16.50047        83.49953
    6.66079e+07     4.67080e+07     8.29513e+06     1.16047e+07     4.03583e+05     0.00000e+00     6.80892e+04     3.35494e+05        70.12387        12.45367        17.42246         0.00000        16.87119        83.12881
    6.66079e+07     4.67080e+07     8.24361e+06     1.16563e+07     4.03583e+05     0.00000e+00     6.95722e+04     3.34011e+05        70.12387        12.37632        17.49981         0.00000        17.23863        82.76137
    6.66079e+07     4.67080e+07     8.19208e+06     1.17078e+07     4.03583e+05     0.00000e+00     7.10421e+04     3.32541e+05        70.12387        12.29897        17.57716         0.00000        17.60284        82.39716
    6.66079e+07     4.67080e+07     8.14056e+06     1.17593e+07     4.03583e+05     0.00000e+00     7.24991e+04     3.31084e+05        70.12387        12.22161        17.65452         0.00000        17.96385        82.03615
    6.66079e+07     4.67080e+07     8.08904e+06     1.18108e+07     4.03583e+05     0.00000e+00     7.39434e+04     3.29640e+05        70.12387        12.14426        17.73187         0.00000        18.32172        81.67828
    6.66079e+07     4.67080e+07     8.03752e+06     1.18623e+07     4.03583e+05     0.00000e+00     7.53751e+04     3.28208e+05        70.12387        12.06691        17.80922         0.00000        18.67648        81.32352
    6.66079e+07     4.67080e+07     7.98599e+06     1.19139e+07     4.03583e+05     0.00000e+00     7.67945e+04     3.26789e+05        70.12387        11.98956        17.88657         0.00000        19.02817        80.97183
    6.66079e+07     4.67080e+07     7.93447e+06     1.19654e+07     4.03583e+05     0.00000e+00     7.82016e+04     3.25381e+05        70.12387        11.91221        17.96392         0.00000        19.37683        80.62317
    6.66079e+07     4.67080e+07     7.88295e+06     1.20169e+07     4.03583e+05     0.00000e+00     7.95967e+04     3.23986e+05        70.12387        11.83485        18.04128         0.00000        19.72250        80.27750
    6.66079e+07     4.67080e+07     7.83143e+06     1.20684e+07     4.03583e+05     0.00000e+00     8.09798e+04     3.22603e+05        70.12387        11.75750        18.11863         0.00000        20.06523        79.93477
    6.66079e+07     4.67080e+07     7.77990e+06     1.21200e+07     4.03583e+05     0.00000e+00     8.23512e+04     3.21232e+05        70.12387        11.68015        18.19598         0.00000        20.40503        79.59497
    6.66079e+07     4.67080e+07     7.72838e+06     1.21715e+07     4.03583e+05     0.00000e+00     8.37110e+04     3.19872e+05        70.12387        11.60280        18.27333         0.00000        20.74196        79.25804
    6.66079e+07     4.67080e+07     7.67686e+06     1.22230e+07     4.03583e+05     0.00000e+00     8.50594e+04     3.18524e+05        70.12387        11.52545        18.35068         0.00000        21.07605        78.92395
    6.66079e+07     4.67080e+07     7.62534e+06     1.22745e+07     4.03583e+05     0.00000e+00     8.63964e+04     3.17187e+05        70.12387        11.44809        18.42803         0.00000        21.40734        78.59266
    6.66079e+07     4.67080e+07     7.57381e+06     1.23261e+07     4.03583e+05     0.00000e+00     8.77222e+04     3.15861e+05        70.12387        11.37074        18.50539         0.00000        21.73585        78.26415
    6.66079e+07     4.67080e+07     7.52229e+06     1.23776e+07     4.03583e+05     0.00000e+00     8.90370e+04     3.14546e+05        70.12387        11.29339        18.58274         0.00000        22.06163        77.93837
    6.66079e+07     4.67080e+07     7.47077e+06     1.24291e+07     4.03583e+05     0.00000e+00     9.03409e+04     3.13242e+05        70.12387        11.21604        18.66009         0.00000        22.38471        77.61529
    6.66079e+07     4.67080e+07     7.41925e+06     1.24806e+07     4.03583e+05     0.00000e+00     9.16340e+04     3.11949e+05        70.12387        11.13869        18.73744         0.00000        22.70512        77.29488
    6.66079e+07     4.67080e+07     7.36772e+06     1.25321e+07     4.03583e+05     0.00000e+00     9.29165e+04     3.10667e+05        70.12387        11.06133        18.81479         0.00000        23.02290        76.97710
    6.66079e+07     4.67080e+07     7.31620e+06     1.25837e+07     4.03583e+05     0.00000e+00     9.41885e+04     3.09395e+05        70.12387        10.98398        18.89215         0.00000        23.33807        76.66193
    6.66079e+07     4.67080e+07     7.26468e+06     1.26352e+07     4.03583e+05     0.00000e+00     9.54501e+04     3.08133e+05        70.12387        10.90663        18.96950         0.00000        23.65068        76.34932
    6.66079e+07     4.67080e+07     7.21316e+06     1.26867e+07     4.03583e+05     0.00000e+00     9.67015e+04     3.06882e+05        70.12387        10.82928        19.04685         0.00000        23.96074        76.03926
    6.66079e+07     4.67080e+07     7.16163e+06     1.27382e+07     4.03583e+05     0.00000e+00     9.79427e+04     3.05640e+05        70.12387        10.75193        19.12420         0.00000        24.26830        75.73170
    6.66079e+07     4.67080e+07     7.11011e+06     1.27898e+07     4.03583e+05     0.00000e+00     9.91740e+04     3.04409e+05        70.12387        10.67457        19.20155         0.00000        24.57338        75.42662
    6.66079e+07     4.67080e+07     7.05859e+06     1.28413e+07     4.03583e+05     0.00000e+00     1.00395e+05     3.03188e+05        70.12387        10.59722        19.27891         0.00000        24.87601        75.12399
    6.66079e+07     4.67080e+07     7.00707e+06     1.28928e+07     4.03583e+05     0.00000e+00     1.01607e+05     3.01976e+05        70.12387        10.51987        19.35626         0.00000        25.17622        74.82378
    6.66079e+07     4.67080e+07     6.95554e+06     1.29443e+07     4.03583e+05     0.00000e+00     1.02809e+05     3.00774e+05        70.12387        10.44252        19.43361         0.00000        25.47405        74.52595
    6.66079e+07     4.67080e+07     6.90402e+06     1.29958e+07     4.03583e+05     0.00000e+00     1.04001e+05     2.99582e+05        70.12387        10.36517        19.51096         0.00000        25.76951        74.23049
    6.66079e+07     4.67080e+07     6.85250e+06     1.30474e+07     4.03583e+05     0.00000e+00     1.05184e+05     2.98399e+05        70.12387        10.28781        19.58831         0.00000        26.06264        73.93736
    6.66079e+07     4.67080e+07     6.80098e+06     1.30989e+07     4.03583e+05     0.00000e+00     1.06358e+05     2.97225e+05        70.12387        10.21046        19.66567         0.00000        26.35346        73.64654
    6.66079e+07     4.67080e+07     6.74945e+06     1.31504e+07     4.03583e+05     0.00000e+00     1.07523e+05     2.96060e+05        70.12387        10.13311        19.74302         0.00000        26.64200        73.35800
    6.66079e+07     4.67080e+07     6.69793e+06     1.32019e+07     4.03583e+05     0.00000e+00     1.08678e+05     2.94905e+05        70.12387        10.05576        19.82037         0.00000        26.92829        73.07171
    6.66079e+07     4.67080e+07     6.64641e+06     1.32535e+07     4.03583e+05     0.00000e+00     1.09824e+05     2.93759e+05        70.12387         9.97841        19.89772         0.00000        27.21235        72.78765
    6.66079e+07     4.67080e+07     6.59489e+06     1.33050e+07     4.03583e+05     0.00000e+00     1.10962e+05     2.92621e+05        70.12387         9.90105        19.97507         0.00000        27.49422        72.50578
    6.66079e+07     4.67080e+07     6.54336e+06     1.33565e+07     4.03583e+05     0.00000e+00     1.12091e+05     2.91492e+05        70.12387         9.82370        20.05243         0.00000        27.77391        72.22609
    6.66079e+07     4.67080e+07     6.49184e+06     1.34080e+07     4.03583e+05     0.00000e+00     1.13211e+05     2.90372e+05        70.12387         9.74635        20.12978         0.00000        28.05145        71.94855
    6.66079e+07     4.67080e+07     6.44032e+06     1.34595e+07     4.03583e+05     0.00000e+00     1.14322e+05     2.89261e+05        70.12387         9.66900        20.20713         0.00000        28.32687        71.67313
    6.66079e+07     4.67080e+07     6.38880e+06     1.35111e+07     4.03583e+05     0.00000e+00     1.15425e+05     2.88158e+05        70.12387         9.59165        20.28448         0.00000        28.60018        71.39982
    6.66079e+07     4.67080e+07     6.33727e+06     1.35626e+07     4.03583e+05     0.00000e+00     1.16520e+05     2.87063e+05        70.12387         9.51429        20.36183         0.00000        28.87142        71.12858
    6.66079e+07     4.67080e+07     6.28575e+06     1.36141e+07     4.03583e+05     0.00000e+00     1.17607e+05     2.85976e+05        70.12387         9.43694        20.43919         0.00000        29.14061        70.85939
    6.66079e+07     4.67080e+07     6.23423e+06     1.36656e+07     4.03583e+05     0.00000e+00     1.18685e+05     2.84898e+05        70.12387         9.35959        20.51654         0.00000        29.40776        70.59224
    6.66079e+07     4.67080e+07     6.18270e+06     1.37172e+07     4.03583e+05     0.00000e+00     1.19755e+05     2.83828e+05        70.12387         9.28224        20.59389         0.00000        29.67291        70.32709
    6.66079e+07     4.67080e+07     6.13118e+06     1.37687e+07     4.03583e+05     0.00000e+00     1.20817e+05     2.82766e+05        70.12387         9.20489        20.67124         0.00000        29.93608        70.06392
    6.66079e+07     4.67080e+07     6.07966e+06     1.38202e+07     4.03583e+05     0.00000e+00     1.21871e+05     2.81712e+05        70.12387         9.12753        20.74859         0.00000        30.19728        69.80272
    6.66079e+07     4.67080e+07     6.02814e+06     1.38717e+07     4.03583e+05     0.00000e+00     1.22917e+05     2.80666e+05        70.12387         9.05018        20.82595         0.00000        30.45654        69.54346
    6.66079e+07     4.67080e+07     5.97661e+06     1.39233e+07     4.03583e+05     0.00000e+00     1.23956e+05     2.79627e+05        70.12387         8.97283        20.90330         0.00000        30.71388        69.28612
    6.66079e+07     4.67080e+07     5.92509e+06     1.39748e+07     4.03583e+05     0.00000e+00     1.24987e+05     2.78596e+05        70.12387         8.89548        20.98065         0.00000        30.96933        69.03067
    6.66079e+07     4.67080e+07     5.87357e+06     1.40263e+07     4.03583e+05     0.00000e+00     1.26010e+05     2.77573e+05        70.12387         8.81813        21.05800         0.00000        31.22290        68.77710
    6.66079e+07     4.67080e+07     5.82205e+06     1.40778e+07     4.03583e+05     0.00000e+00     1.27026e+05     2.76557e+05        70.12387         8.74077        21.13535         0.00000        31.47461        68.52539
    6.66079e+07     4.67080e+07     5.77052e+06     1.41293e+07     4.03583e+05     0.00000e+00     1.28035e+05     2.75548e+05        70.12387         8.66342        21.21271         0.00000        31.72449        68.27551
    6.66079e+07     4.67080e+07     5.71900e+06     1.41809e+07     4.03583e+05     0.00000e+00     1.29036e+05     2.74547e+05        70.12387         8.58607        21.29006         0.00000        31.97255        68.02745
    6.66079e+07     4.67080e+07     5.66748e+06     1.42324e+07     4.03583e+05     0.00000e+00     1.30030e+05     2.73553e+05        70.12387         8.50872        21.36741         0.00000        32.21882        67.78118
    6.66079e+07     4.67080e+07     5.61596e+06     1.42839e+07     4.03583e+05     0.00000e+00     1.31016e+05     2.72567e+05        70.12387         8.43137        21.44476         0.00000        32.46331        67.53669
    6.66079e+07     4.67080e+07     5.56443e+06     1.43354e+07     4.03583e+05     0.00000e+00     1.31996e+05     2.71587e+05        70.12387         8.35401        21.52211         0.00000        32.70604        67.29396
    6.66079e+07     4.67080e+07     5.51291e+06     1.43870e+07     4.03583e+05     0.00000e+00     1.32969e+05     2.70614e+05        70.12387         8.27666        21.59947         0.00000        32.94703        67.05297
    6.66079e+07     4.67080e+07     5.46139e+06     1.44385e+07     4.03583e+05     0.00000e+00     1.33934e+05     2.69649e+05        70.12387         8.19931        21.67682         0.00000        33.18630        66.81370
    6.66079e+07     4.67080e+07     5.40987e+06     1.44900e+07     4.03583e+05     0.00000e+00     1.34893e+05     2.68690e+05        70.12387         8.12196        21.75417         0.00000        33.42387        66.57613
    6.66079e+07     4.67080e+07     5.35834e+06     1.45415e+07     4.03583e+05     0.00000e+00     1.35845e+05     2.67738e+05        70.12387         8.04461        21.83152         0.00000        33.65976        66.34024
    6.66079e+07     4.67080e+07     5.30682e+06     1.45930e+07     4.03583e+05     0.00000e+00     1.36790e+05     2.66793e+05        70.12387         7.96725        21.90887         0.00000        33.89398        66.10602
    6.66079e+07     4.67080e+07     5.25530e+06     1.46446e+07     4.03583e+05     0.00000e+00     1.37729e+05     2.65854e+05        70.12387         7.88990        21.98623         0.00000        34.12656        65.87344
    6.66079e+07     4.67080e+07     5.20378e+06     1.46961e+07     4.03583e+05     0.00000e+00     1.38661e+05     2.64922e+05        70.12387         7.81255        22.06358         0.00000        34.35750        65.64250
    6.66079e+07     4.67080e+07     5.15225e+06     1.47476e+07     4.03583e+05     0.00000e+00     1.39587e+05     2.63996e+05        70.12387         7.73520        22.14093         0.00000        34.58683        65.41317
    6.66079e+07     4.67080e+07     5.10073e+06     1.47991e+07     4.03583e+05     0.00000e+00     1.40506e+05     2.63077e+05        70.12387         7.65785        22.21828         0.00000        34.81457        65.18543
    6.66079e+07     4.67080e+07     5.04921e+06     1.48507e+07     4.03583e+05     0.00000e+00     1.41418e+05     2.62165e+05        70.12387         7.58049        22.29563         0.00000        35.04072        64.95928
    6.66079e+07     4.67080e+07     4.99769e+06     1.49022e+07     4.03583e+05     0.00000e+00     1.42325e+05     2.61258e+05        70.12387         7.50314        22.37299         0.00000        35.26531        64.73469
    6.66079e+07     4.67080e+07     4.94616e+06     1.49537e+07     4.03583e+05     0.00000e+00     1.43225e+05     2.60358e+05        70.12387         7.42579        22.45034         0.00000        35.48835        64.51165
    6.66079e+07     4.67080e+07     4.89464e+06     1.50052e+07     4.03583e+05     0.00000e+00     1.44119e+05     2.59464e+05        70.12387         7.34844        22.52769         0.00000        35.70986        64.29014
    6.66079e+07     4.67080e+07     4.84312e+06     1.50567e+07     4.03583e+05     0.00000e+00     1.45007e+05     2.58576e+05        70.12387         7.27109        22.60504         0.00000        35.92985        64.07015
    6.66079e+07     4.67080e+07     4.79160e+06     1.51083e+07     4.03583e+05     0.00000e+00     1.45889e+05     2.57694e+05        70.12387         7.19373        22.68239         0.00000        36.14835        63.85165
    6.66079e+07     4.67080e+07     4.74007e+06     1.51598e+07     4.03583e+05     0.00000e+00     1.46764e+05     2.56819e+05        70.12387         7.11638        22.75975         0.00000        36.36535        63.63465
    6.66079e+07     4.67080e+07     4.68855e+06     1.52113e+07     4.03583e+05     0.00000e+00     1.47634e+05     2.55949e+05        70.12387         7.03903        22.83710         0.00000        36.58089        63.41911
    6.66079e+07     4.67080e+07     4.63703e+06     1.52628e+07     4.03583e+05     0.00000e+00     1.48498e+05     2.55085e+05        70.12387         6.96168        22.91445         0.00000        36.79498        63.20502
    6.66079e+07     4.67080e+07     4.58551e+06     1.53144e+07     4.03583e+05     0.00000e+00     1.49356e+05     2.54227e+05        70.12387         6.88433        22.99180         0.00000        37.00762        62.99238
    6.66079e+07     4.67080e+07     4.53398e+06     1.53659e+07     4.03583e+05     0.00000e+00     1.50209e+05     2.53374e+05        70.12387         6.80697        23.06915         0.00000        37.21883        62.78117
    6.66079e+07     4.67080e+07     4.48246e+06     1.54174e+07     4.03583e+05     0.00000e+00     1.51056e+05     2.52527e+05        70.12387         6.72962        23.14651         0.00000        37.42864        62.57136
    6.66079e+07     4.67080e+07     4.43094e+06     1.54689e+07     4.03583e+05     0.00000e+00     1.51897e+05     2.51686e+05        70.12387         6.65227        23.22386         0.00000        37.63705        62.36295
    6.66079e+07     4.67080e+07     4.37942e+06     1.55204e+07     4.03583e+05     0.00000e+00     1.52732e+05     2.50851e+05        70.12387         6.57492        23.30121         0.00000        37.84407        62.15593
    6.66079e+07     4.67080e+07     4.32789e+06     1.55720e+07     4.03583e+05     0.00000e+00     1.53562e+05     2.50021e+05        70.12387         6.49757        23.37856         0.00000        38.04972        61.95028
    6.66079e+07     4.67080e+07     4.27637e+06     1.56235e+07     4.03583e+05     0.00000e+00     1.54387e+05     2.49196e+05        70.12387         6.42021        23.45591         0.00000        38.25402        61.74598
    6.66079e+07     4.67080e+07     4.22485e+06     1.56750e+07     4.03583e+05     0.00000e+00     1.55206e+05     2.48377e+05        70.12387         6.34286        23.53327         0.00000        38.45698        61.54302
    6.66079e+07     4.67080e+07     4.17333e+06     1.57265e+07     4.03583e+05     0.00000e+00     1.56020e+05     2.47563e+05        70.12387         6.26551        23.61062         0.00000        38.65860        61.34140
    6.66079e+07     4.67080e+07     4.12180e+06     1.57781e+07     4.03583e+05     0.00000e+00     1.56828e+05     2.46755e+05        70.12387         6.18816        23.68797         0.00000        38.85891        61.14109
    6.66079e+07     4.67080e+07     4.07028e+06     1.58296e+07     4.03583e+05     0.00000e+00     1.57631e+05     2.45952e+05        70.12387         6.11081        23.76532         0.00000        39.05791        60.94209
    6.66079e+07     4.67080e+07     4.01876e+06     1.58811e+07     4.03583e+05     0.00000e+00     1.58429e+05     2.45154e+05        70.12387         6.03345        23.84267         0.00000        39.25562        60.74438
    6.66079e+07     4.67080e+07     3.96724e+06     1.59326e+07     4.03583e+05     0.00000e+00     1.59222e+05     2.44361e+05        70.12387         5.95610        23.92003         0.00000        39.45206        60.54794
    6.66079e+07     4.67080e+07     3.91571e+06     1.59842e+07     4.03583e+05     0.00000e+00     1.60009e+05     2.43574e+05        70.12387         5.87875        23.99738         0.00000        39.64722        60.35278
    6.66079e+07     4.67080e+07     3.86419e+06     1.60357e+07     4.03583e+05     0.00000e+00     1.60792e+05     2.42791e+05        70.12387         5.80140        24.07473         0.00000        39.84114        60.15886
    6.66079e+07     4.67080e+07     3.81267e+06     1.60872e+07     4.03583e+05     0.00000e+00     1.61570e+05     2.42013e+05        70.12387         5.72405        24.15208         0.00000        40.03381        59.96619
    6.66079e+07     4.67080e+07     3.76115e+06     1.61387e+07     4.03583e+05     0.00000e+00     1.62342e+05     2.41241e+05        70.12387         5.64669        24.22943         0.00000        40.22525        59.77475
    6.66079e+07     4.67080e+07     3.70962e+06     1.61902e+07     4.03583e+05     0.00000e+00     1.63110e+05     2.40473e+05        70.12387         5.56934        24.30679         0.00000        40.41547        59.58453
    6.66079e+07     4.67080e+07     3.65810e+06     1.62418e+07     4.03583e+05     0.00000e+00     1.63873e+05     2.39710e+05        70.12387         5.49199        24.38414         0.00000        40.60449        59.39551
    6.66079e+07     4.67080e+07     3.60658e+06     1.62933e+07     4.03583e+05     0.00000e+00     1.64631e+05     2.38952e+05        70.12387         5.41464        24.46149         0.00000        40.79231        59.20769
    6.66079e+07     4.67080e+07     3.55506e+06     1.63448e+07     4.03583e+05     0.00000e+00     1.65384e+05     2.38199e+05        70.12387         5.33729        24.53884         0.00000        40.97894        59.02106
    6.66079e+07     4.67080e+07     3.50353e+06     1.63963e+07     4.03583e+05     0.00000e+00     1.66133e+05     2.37450e+05        70.12387         5.25993        24.61619         0.00000        41.16441        58.83559
    6.66079e+07     4.67080e+07     3.45201e+06     1.64479e+07     4.03583e+05     0.00000e+00     1.66876e+05     2.36707e+05        70.12387         5.18258        24.69355         0.00000        41.34871        58.65129
    6.66079e+07     4.67080e+07     3.40049e+06     1.64994e+07     4.03583e+05     0.00000e+00     1.67616e+05     2.35968e+05        70.12387         5.10523        24.77090         0.00000        41.53186        58.46814
    6.66079e+07     4.67080e+07     3.34897e+06     1.65509e+07     4.03583e+05     0.00000e+00     1.68350e+05     2.35233e+05        70.12387         5.02788        24.84825         0.00000        41.71387        58.28613
    6.66079e+07     4.67080e+07     3.29744e+06     1.66024e+07     4.03583e+05     0.00000e+00     1.69080e+05     2.34503e+05        70.12387         4.95053        24.92560         0.00000        41.89475        58.10525
    6.66079e+07     4.67080e+07     3.24592e+06     1.66539e+07     4.03583e+05     0.00000e+00     1.69806e+05     2.33777e+05        70.12387         4.87318        25.00295         0.00000        42.07451        57.92549
    6.66079e+07     4.67080e+07     3.19440e+06     1.67055e+07     4.03583e+05     0.00000e+00     1.70527e+05     2.33056e+05        70.12387         4.79582        25.08031         0.00000        42.25316        57.74684
    6.66079e+07     4.67080e+07     3.14288e+06     1.67570e+07     4.03583e+05     0.00000e+00     1.71243e+05     2.32340e+05        70.12387         4.71847        25.15766         0.00000        42.43071        57.56929
    6.66079e+07     4.67080e+07     3.09135e+06     1.68085e+07     4.03583e+05     0.00000e+00     1.71955e+05     2.31628e+05        70.12387         4.64112        25.23501         0.00000        42.60718        57.39282
    6.66079e+07     4.67080e+07     3.03983e+06     1.68600e+07     4.03583e+05     0.00000e+00     1.72663e+05     2.30920e+05        70.12387         4.56377        25.31236         0.00000        42.78257        57.21743
    6.66079e+07     4.67080e+07     2.98831e+06     1.69116e+07     4.03583e+05     0.00000e+00     1.73367e+05     2.30216e+05        70.12387         4.48642        25.38971         0.00000        42.95688        57.04312
    6.66079e+07     4.67080e+07     2.93678e+06     1.69631e+07     4.03583e+05     0.00000e+00     1.74066e+05     2.29517e+05        70.12387         4.40906        25.46707         0.00000        43.13014        56.86986
    6.66079e+07     4.67080e+07     2.88526e+06     1.70146e+07     4.03583e+05     0.00000e+00     1.74761e+05     2.28822e+05        70.12387         4.33171        25.54442         0.00000        43.30235        56.69765
    6.66079e+07     4.67080e+07     2.83374e+06     1.70661e+07     4.03583e+05     0.00000e+00     1.75452e+05     2.28131e+05        70.12387         4.25436        25.62177         0.00000        43.47352        56.52648
    6.66079e+07     4.67080e+07     2.78222e+06     1.71176e+07     4.03583e+05     0.00000e+00     1.76138e+05     2.27445e+05        70.12387         4.17701        25.69912         0.00000        43.64366        56.35634
    6.66079e+07     4.67080e+07     2.73069e+06     1.71692e+07     4.03583e+05     0.00000e+00     1.76821e+05     2.26762e+05        70.12387         4.09966        25.77647         0.00000        43.81278        56.18722
    6.66079e+07     4.67080e+07     2.67917e+06     1.72207e+07     4.03583e+05     0.00000e+00     1.77499e+05     2.26084e+05        70.12387         4.02230        25.85383         0.00000        43.98089        56.01911
    6.66079e+07     4.67080e+07     2.62765e+06     1.72722e+07     4.03583e+05     0.00000e+00     1.78174e+05     2.25409e+05        70.12387         3.94495        25.93118         0.00000        44.14799        55.85201
    6.66079e+07     4.67080e+07     2.57613e+06     1.73237e+07     4.03583e+05     0.00000e+00     1.78844e+05     2.24739e+05        70.12387         3.86760        26.00853         0.00000        44.31410        55.68590
    6.66079e+07     4.67080e+07     2.52460e+06     1.73753e+07     4.03583e+05     0.00000e+00     1.79511e+05     2.24072e+05        70.12387         3.79025        26.08588         0.00000        44.47922        55.52078
    6.66079e+07     4.67080e+07     2.47308e+06     1.74268e+07     4.03583e+05     0.00000e+00     1.80173e+05     2.23410e+05        70.12387         3.71290        26.16323         0.00000        44.64337        55.35663
    6.66079e+07     4.67080e+07     2.42156e+06     1.74783e+07     4.03583e+05     0.00000e+00     1.80832e+05     2.22751e+05        70.12387         3.63554        26.24059         0.00000        44.80655        55.19345
    6.66079e+07     4.67080e+07     2.37004e+06     1.75298e+07     4.03583e+05     0.00000e+00     1.81486e+05     2.22097e+05        70.12387         3.55819        26.31794         0.00000        44.96877        55.03123
    6.66079e+07     4.67080e+07     2.31851e+06     1.75814e+07     4.03583e+05     0.00000e+00     1.82137e+05     2.21446e+05        70.12387         3.48084        26.39529         0.00000        45.13004        54.86996
    6.66079e+07     4.67080e+07     2.26699e+06     1.76329e+07     4.03583e+05     0.00000e+00     1.82784e+05     2.20799e+05        70.12387         3.40349        26.47264         0.00000        45.29037        54.70963
    6.66079e+07     4.67080e+07     2.21547e+06     1.76844e+07     4.03583e+05     0.00000e+00     1.83428e+05     2.20155e+05        70.12387         3.32614        26.54999         0.00000        45.44977        54.55023
    6.66079e+07     4.67080e+07     2.16395e+06     1.77359e+07     4.03583e+05     0.00000e+00     1.84067e+05     2.19516e+05        70.12387         3.24878        26.62735         0.00000        45.60823        54.39177
    6.66079e+07     4.67080e+07     2.11242e+06     1.77874e+07     4.03583e+05     0.00000e+00     1.84703e+05     2.18880e+05        70.12387         3.17143        26.70470         0.00000        45.76578        54.23422
    6.66079e+07     4.67080e+07     2.06090e+06     1.78390e+07     4.03583e+05     0.00000e+00     1.85335e+05     2.18248e+05        70.12387         3.09408        26.78205         0.00000        45.92242        54.07758
    6.66079e+07     4.67080e+07     2.00938e+06     1.78905e+07     4.03583e+05     0.00000e+00     1.85964e+05     2.17619e+05        70.12387         3.01673        26.85940         0.00000        46.07816        53.92184
    6.66079e+07     4.67080e+07     1.95786e+06     1.79420e+07     4.03583e+05     0.00000e+00     1.86589e+05     2.16994e+05        70.12387         2.93938        26.93675         0.00000        46.23300        53.76700
    6.66079e+07     4.67080e+07     1.90633e+06     1.79935e+07     4.03583e+05     0.00000e+00     1.87210e+05     2.16373e+05        70.12387         2.86202        27.01411         0.00000        46.38696        53.61304
    6.66079e+07     4.67080e+07     1.85481e+06     1.80451e+07     4.03583e+05     0.00000e+00     1.87828e+05     2.15755e+05        70.12387         2.78467        27.09146         0.00000        46.54003        53.45997
    6.66079e+07     4.67080e+07     1.80329e+06     1.80966e+07     4.03583e+05     0.00000e+00     1.88442e+05     2.15141e+05        70.12387         2.70732        27.16881         0.00000        46.69224        53.30776
    6.66079e+07     4.67080e+07     1.75177e+06     1.81481e+07     4.03583e+05     0.00000e+00     1.89053e+05     2.14530e+05        70.12387         2.62997        27.24616         0.00000        46.84358        53.15642
    6.66079e+07     4.67080e+07     1.70024e+06     1.81996e+07     4.03583e+05     0.00000e+00     1.89660e+05     2.13923e+05        70.12387         2.55262        27.32351         0.00000        46.99406        53.00594
    6.66079e+07     4.67080e+07     1.64872e+06     1.82511e+07     4.03583e+05     0.00000e+00     1.90264e+05     2.13319e+05        70.12387         2.47526        27.40087         0.00000        47.14370        52.85630
    6.66079e+07     4.67080e+07     1.59720e+06     1.83027e+07     4.03583e+05     0.00000e+00     1.90864e+05     2.12719e+05        70.12387         2.39791        27.47822         0.00000        47.29249        52.70751
    6.66079e+07     4.67080e+07     1.54568e+06     1.83542e+07     4.03583e+05     0.00000e+00     1.91462e+05     2.12121e+05        70.12387         2.32056        27.55557         0.00000        47.44045        52.55955
    6.66079e+07     4.67080e+07     1.49415e+06     1.84057e+07     4.03583e+05     0.00000e+00     1.92055e+05     2.11528e+05        70.12387         2.24321        27.63292         0.00000        47.58758        52.41242
    6.66079e+07     4.67080e+07     1.44263e+06     1.84572e+07     4.03583e+05     0.00000e+00     1.92646e+05     2.10937e+05        70.12387         2.16586        27.71027         0.00000        47.73388        52.26612
    6.66079e+07     4.67080e+07     1.39111e+06     1.85088e+07     4.03583e+05     0.00000e+00     1.93233e+05     2.10350e+05        70.12387         2.08850        27.78763         0.00000        47.87938        52.12062
    6.66079e+07     4.67080e+07     1.33959e+06     1.85603e+07     4.03583e+05     0.00000e+00     1.93817e+05     2.09766e+05        70.12387         2.01115        27.86498         0.00000        48.02406        51.97594
    6.66079e+07     4.67080e+07     1.28806e+06     1.86118e+07     4.03583e+05     0.00000e+00     1.94398e+05     2.09185e+05        70.12387         1.93380        27.94233         0.00000        48.16794        51.83206
    6.66079e+07     4.67080e+07     1.23654e+06     1.86633e+07     4.03583e+05     0.00000e+00     1.94975e+05     2.08608e+05        70.12387         1.85645        28.01968         0.00000        48.31103        51.68897
    6.66079e+07     4.67080e+07     1.18502e+06     1.87148e+07     4.03583e+05     0.00000e+00     1.95549e+05     2.08034e+05        70.12387         1.77910        28.09703         0.00000        48.45333        51.54667
    6.66079e+07     4.67080e+07     1.13350e+06     1.87664e+07     4.03583e+05     0.00000e+00     1.96121e+05     2.07462e+05        70.12387         1.70174        28.17438         0.00000        48.59485        51.40515
    6.66079e+07     4.67080e+07     1.08197e+06     1.88179e+07     4.03583e+05     0.00000e+00     1.96689e+05     2.06894e+05        70.12387         1.62439        28.25174         0.00000        48.73560        51.26440
    6.66079e+07     4.67080e+07     1.03045e+06     1.88694e+07     4.03583e+05     0.00000e+00     1.97254e+05     2.06330e+05        70.12387         1.54704        28.32909         0.00000        48.87558        51.12442
    6.66079e+07     4.67080e+07     9.78928e+05     1.89209e+07     4.03583e+05     0.00000e+00     1.97815e+05     2.05768e+05        70.12387         1.46969        28.40644         0.00000        49.01479        50.98521
    6.66079e+07     4.67080e+07     9.27406e+05     1.89725e+07     4.03583e+05     0.00000e+00     1.98374e+05     2.05209e+05        70.12387         1.39234        28.48379         0.00000        49.15325        50.84675
    6.66079e+07     4.67080e+07     8.75883e+05     1.90240e+07     4.03583e+05     0.00000e+00     1.98930e+05     2.04653e+05        70.12387         1.31498        28.56114         0.00000        49.29096        50.70904
    6.66079e+07     4.67080e+07     8.24361e+05     1.90755e+07     4.03583e+05     0.00000e+00     1.99483e+05     2.04100e+05        70.12387         1.23763        28.63850         0.00000        49.42792        50.57208
    6.66079e+07     4.67080e+07     7.72838e+05     1.91270e+07     4.03583e+05     0.00000e+00     2.00032e+05     2.03551e+05        70.12387         1.16028        28.71585         0.00000        49.56415        50.43585
    6.66079e+07     4.67080e+07     7.21316e+05     1.91785e+07     4.03583e+05     0.00000e+00     2.00579e+05     2.03004e+05        70.12387         1.08293        28.79320         0.00000        49.69964        50.30036
    6.66079e+07     4.67080e+07     6.69793e+05     1.92301e+07     4.03583e+05     0.00000e+00     2.01123e+05     2.02460e+05        70.12387         1.00558        28.87055         0.00000        49.83441        50.16559
    6.66079e+07     4.67080e+07     6.18270e+05     1.92816e+07     4.03583e+05     0.00000e+00     2.01664e+05     2.01919e+05        70.12387         0.92822        28.94790         0.00000        49.96846        50.03154
    6.66079e+07     4.67080e+07     5.66748e+05     1.93331e+07     4.03583e+05     0.00000e+00     2.02202e+05     2.01381e+05        70.12387         0.85087        29.02526         0.00000        50.10179        49.89821
    6.66079e+07     4.67080e+07     5.15225e+05     1.93846e+07     4.03583e+05     0.00000e+00     2.02738e+05     2.00845e+05        70.12387         0.77352        29.10261         0.00000        50.23441        49.76559
    6.66079e+07     4.67080e+07     4.63703e+05     1.94362e+07     4.03583e+05     0.00000e+00     2.03270e+05     2.00313e+05        70.12387         0.69617        29.17996         0.00000        50.36634        49.63366
    6.66079e+07     4.67080e+07     4.12180e+05     1.94877e+07     4.03583e+05     0.00000e+00     2.03800e+05     1.99783e+05        70.12387         0.61882        29.25731         0.00000        50.49756        49.50244
    6.66079e+07     4.67080e+07     3.60658e+05     1.95392e+07     4.03583e+05     0.00000e+00     2.04326e+05     1.99257e+05        70.12387         0.54146        29.33466         0.00000        50.62809        49.37191
    6.66079e+07     4.67080e+07     3.09135e+05     1.95907e+07     4.03583e+05     0.00000e+00     2.04850e+05     1.98733e+05        70.12387         0.46411        29.41202         0.00000        50.75794        49.24206
    6.66079e+07     4.67080e+07     2.57613e+05     1.96423e+07     4.03583e+05     0.00000e+00     2.05372e+05     1.98211e+05        70.12387         0.38676        29.48937         0.00000        50.88710        49.11290
    6.66079e+07     4.67080e+07     2.06090e+05     1.96938e+07     4.03583e+05     0.00000e+00     2.05890e+05     1.97693e+05        70.12387         0.30941        29.56672         0.00000        51.01559        48.98441
    6.66079e+07     4.67080e+07     1.54568e+05     1.97453e+07     4.03583e+05     0.00000e+00     2.06406e+05     1.97177e+05        70.12387         0.23206        29.64407         0.00000        51.14341        48.85659
    6.66079e+07     4.67080e+07     1.03045e+05     1.97968e+07     4.03583e+05     0.00000e+00     2.06919e+05     1.96664e+05        70.12387         0.15470        29.72142         0.00000        51.27056        48.72944
    6.66079e+07     4.67080e+07     5.15225e+04     1.98483e+07     4.03583e+05     0.00000e+00     2.07430e+05     1.96153e+05        70.12387         0.07735        29.79878         0.00000        51.39705        48.60295
    6.66079e+07     4.67080e+07     7.45058e-09     1.98999e+07     4.03583e+05     0.00000e+00     2.07938e+05     1.95645e+05        70.12387         0.00000        29.87613         0.00000        51.52289        48.47711
